Data from FLMS030651_10-08-09-629.txt Node
Date: Wed Nov 13 10:08:09 CET 2019
User: Student
Spectrometer: FLMS03065
Trigger mode: 0
Integration Time (sec): 1,000000E-1
Scans to average: 1
Electric dark correction enabled: true
Nonlinearity correction enabled: false
Boxcar width: 0
XAxis mode: Wavelengths
Number of Pixels in Spectrum: 2048
>>>>>Begin Spectral Data<<<<<
339,621	67,36
340,007	67,36
340,392	67,36
340,778	-41,87
341,164	-90,41
341,549	-107,4
341,935	-138,96
342,32	-136,53
342,706	-17,6
343,091	-12,74
343,476	-54,01
343,862	-41,87
344,247	-63,71
344,632	-20,02
345,017	30,95
345,402	30,95
345,787	103,76
346,172	35,8
346,557	106,19
346,942	208,13
347,327	77,06
347,712	128,04
348,096	181,43
348,481	179,01
348,866	137,74
349,25	164,44
349,635	188,72
350,019	191,14
350,404	229,98
350,788	242,12
351,172	246,97
351,557	307,65
351,941	293,09
352,325	283,38
352,709	266,39
353,093	283,38
353,478	283,38
353,862	251,82
354,245	339,2
354,629	293,09
355,013	334,35
355,397	363,48
355,781	300,37
356,165	305,22
356,548	285,81
356,932	370,76
357,315	268,81
357,699	329,5
358,082	327,07
358,466	302,8
358,849	319,79
359,233	390,18
359,616	295,51
359,999	336,78
360,382	305,22
360,765	290,66
361,149	305,22
361,532	307,65
361,915	307,65
362,297	302,8
362,68	295,51
363,063	259,11
363,446	254,25
363,829	283,38
364,211	305,22
364,594	229,98
364,977	356,19
365,359	276,1
365,742	246,97
366,124	263,96
366,507	293,09
366,889	263,96
367,271	356,19
367,654	322,21
368,036	290,66
368,418	300,37
368,8	280,95
369,182	302,8
369,564	246,97
369,946	314,93
370,328	290,66
370,71	251,82
371,092	363,48
371,474	249,4
371,855	268,81
372,237	348,91
372,619	256,68
373	234,83
373,382	322,21
373,763	278,52
374,145	363,48
374,526	244,54
374,907	251,82
375,289	251,82
375,67	263,96
376,051	181,43
376,432	285,81
376,813	300,37
377,194	285,81
377,575	227,55
377,956	244,54
378,337	225,12
378,718	276,1
379,099	312,5
379,48	356,19
379,86	339,2
380,241	339,2
380,622	244,54
381,002	237,26
381,383	225,12
381,763	334,35
382,144	285,81
382,524	280,95
382,904	210,56
383,285	310,08
383,665	312,5
384,045	288,23
384,425	271,24
384,805	380,47
385,185	237,26
385,565	276,1
385,945	317,36
386,325	334,35
386,705	358,62
387,085	278,52
387,464	327,07
387,844	322,21
388,224	244,54
388,603	344,06
388,983	283,38
389,362	331,92
389,742	295,51
390,121	329,5
390,501	239,69
390,88	285,81
391,259	344,06
391,638	351,34
392,017	256,68
392,397	307,65
392,776	249,4
393,155	259,11
393,534	266,39
393,912	380,47
394,291	244,54
394,67	336,78
395,049	302,8
395,428	297,94
395,806	305,22
396,185	353,77
396,563	283,38
396,942	276,1
397,32	327,07
397,699	259,11
398,077	259,11
398,456	285,81
398,834	331,92
399,212	307,65
399,59	331,92
399,968	302,8
400,346	288,23
400,724	314,93
401,102	312,5
401,48	256,68
401,858	295,51
402,236	293,09
402,614	244,54
402,992	334,35
403,369	288,23
403,747	254,25
404,124	344,06
404,502	329,5
404,879	283,38
405,257	327,07
405,634	237,26
406,012	244,54
406,389	276,1
406,766	276,1
407,143	331,92
407,52	365,9
407,898	310,08
408,275	307,65
408,652	297,94
409,029	261,53
409,405	307,65
409,782	237,26
410,159	288,23
410,536	307,65
410,913	290,66
411,289	317,36
411,666	390,18
412,042	346,49
412,419	288,23
412,795	310,08
413,172	365,9
413,548	314,93
413,924	273,67
414,301	346,49
414,677	363,48
415,053	307,65
415,429	297,94
415,805	363,48
416,181	293,09
416,557	263,96
416,933	346,49
417,309	307,65
417,685	278,52
418,061	324,64
418,436	348,91
418,812	317,36
419,188	302,8
419,563	278,52
419,939	273,67
420,314	378,04
420,69	433,87
421,065	256,68
421,44	336,78
421,816	324,64
422,191	363,48
422,566	307,65
422,941	268,81
423,316	409,59
423,691	424,16
424,066	365,9
424,441	380,47
424,816	380,47
425,191	373,19
425,566	351,34
425,94	370,76
426,315	382,89
426,69	407,17
427,064	365,9
427,439	416,88
427,813	329,5
428,188	380,47
428,562	392,6
428,936	443,57
429,311	407,17
429,685	397,46
430,059	373,19
430,433	501,83
430,807	462,99
431,181	450,86
431,555	504,26
431,929	472,7
432,303	492,12
432,677	453,28
433,051	555,23
433,425	528,53
433,798	540,66
434,172	569,79
434,546	492,12
434,919	625,62
435,293	642,61
435,666	632,9
436,04	705,71
436,413	739,7
436,786	739,7
437,159	785,81
437,533	810,09
437,906	846,49
438,279	868,34
438,652	950,86
439,025	814,94
439,398	1016,4
439,771	1077,08
440,144	1084,36
440,516	1033,39
440,889	1183,88
441,262	1244,56
441,635	1256,69
442,007	1375,63
442,38	1458,15
442,752	1567,38
443,125	1664,47
443,497	1710,58
443,87	1817,38
444,242	1858,65
444,614	2035,83
444,986	2064,96
445,359	2145,06
445,731	2222,73
446,103	2521,28
446,475	2681,47
446,847	2768,85
447,219	2897,5
447,59	3091,67
447,962	3288,28
448,334	3572,26
448,706	3528,57
449,077	3754,31
449,449	4128,1
449,821	4453,35
450,192	4640,24
450,564	4783,45
450,935	5074,71
451,306	5460,64
451,678	5929,1
452,049	6281,04
452,42	6637,85
452,791	6817,46
453,163	7361,16
453,534	7972,82
453,905	8514,09
454,276	8841,76
454,647	9567,5
455,017	10159,75
455,388	10693,73
455,759	11319,96
456,13	12050,55
456,5	12749,59
456,871	13715,63
457,242	14307,87
457,612	15218,08
457,983	15936,53
458,353	16300,62
458,723	17565,2
459,094	18618,61
459,464	19273,96
459,834	20754,57
460,204	21155,06
460,575	22431,78
460,945	23157,52
461,315	24305,6
461,685	24798,32
462,055	25392,99
462,425	25876,01
462,794	27213,41
463,164	27507,1
463,534	27761,96
463,904	28487,7
464,273	29135,77
464,643	29553,25
465,012	29601,8
465,382	30478,02
465,751	30378,51
466,121	29820,25
466,49	30465,89
466,859	29786,26
467,228	29946,46
467,598	29519,27
467,967	28963,44
468,336	29242,57
468,705	28456,15
469,074	27827,5
469,443	27400,3
469,812	27135,74
470,181	26242,52
470,549	26019,22
470,918	24975,51
471,287	24698,81
471,655	23854,13
472,024	23451,21
472,393	22189,06
472,761	22225,47
473,129	21480,31
473,498	20383,21
473,866	20036,11
474,234	19973
474,603	19101,63
474,971	18453,56
475,339	17579,76
475,707	17506,95
476,075	17227,82
476,443	16584,6
476,811	16186,54
477,179	16113,72
477,547	15402,55
477,915	15434,1
478,282	15023,9
478,65	14732,63
479,018	14671,95
479,385	14327,29
479,753	14288,45
480,12	13870,97
480,488	13633,1
480,855	13363,68
481,222	13006,88
481,59	12560,27
481,957	12506,87
482,324	12455,9
482,691	11948,61
483,058	11705,89
483,425	11487,44
483,792	11339,38
484,159	10878,2
484,526	10807,81
484,893	10501,98
485,26	10052,95
485,627	9921,88
485,993	9497,11
486,36	9324,78
486,727	8929,14
487,093	8730,11
487,46	8606,32
487,826	8208,26
488,192	7953,4
488,559	7759,22
488,925	7363,59
489,291	7230,09
489,658	7118,44
490,024	6640,27
490,39	6582,02
490,756	6433,96
491,122	6341,72
491,488	6072,3
491,854	5873,27
492,219	5606,28
492,585	5453,36
492,951	5387,83
493,317	5385,4
493,682	4878,11
494,048	5031,02
494,413	4773,74
494,779	4649,95
495,144	4676,65
495,51	4365,97
495,875	4208,2
496,24	4307,71
496,606	4086,84
496,971	3938,77
497,336	3827,12
497,701	3705,76
498,066	3642,65
498,431	3426,63
498,796	3477,6
499,161	3470,32
499,526	3264,01
499,89	3203,33
500,255	3174,2
500,62	2955,75
500,985	2919,34
501,349	2878,08
501,714	2868,37
502,078	2703,32
502,443	2686,33
502,807	2574,68
503,171	2574,68
503,536	2414,48
503,9	2409,62
504,264	2365,93
504,628	2193,6
504,992	2169,33
505,356	2137,78
505,72	2077,1
506,084	1982,43
506,448	1916,9
506,812	1924,18
507,176	1776,12
507,539	1810,1
507,903	1761,56
508,267	1720,29
508,63	1581,94
508,994	1475,14
509,357	1438,74
509,721	1540,68
510,084	1363,49
510,447	1528,54
510,811	1329,51
511,174	1319,8
511,537	1365,92
511,9	1181,45
512,263	1254,27
512,626	1271,26
512,989	1251,84
513,352	1186,3
513,715	1103,78
514,078	1135,33
514,441	1077,08
514,803	1081,93
515,166	1004,26
515,529	1045,53
515,891	970,28
516,254	916,88
516,616	953,29
516,979	1021,25
517,341	938,73
517,703	882,9
518,066	817,37
518,428	795,52
518,79	805,23
519,152	836,78
519,514	800,38
519,876	688,72
520,238	858,63
520,6	776,1
520,962	756,69
521,324	744,55
521,685	669,31
522,047	725,13
522,409	810,09
522,77	732,41
523,132	759,11
523,494	698,43
523,855	632,9
524,216	715,42
524,578	691,15
524,939	577,07
525,3	557,65
525,662	664,45
526,023	579,5
526,384	640,18
526,745	608,63
527,106	618,33
527,467	632,9
527,828	569,79
528,189	552,8
528,549	535,81
528,91	560,08
529,271	489,69
529,631	530,95
529,992	465,42
530,353	538,24
530,713	584,35
531,074	467,85
531,434	467,85
531,794	523,67
532,155	603,77
532,515	518,82
532,875	513,96
533,235	470,27
533,595	455,71
533,955	470,27
534,315	506,68
534,675	528,53
535,035	501,83
535,395	373,19
535,755	443,57
536,114	407,17
536,474	462,99
536,834	560,08
537,193	438,72
537,553	419,3
537,912	494,55
538,272	472,7
538,631	477,56
538,991	499,4
539,35	407,17
539,709	441,15
540,068	530,95
540,427	368,33
540,786	424,16
541,146	387,75
541,504	419,3
541,863	409,59
542,222	465,42
542,581	467,85
542,94	489,69
543,299	484,84
543,657	450,86
544,016	455,71
544,374	470,27
544,733	482,41
545,091	499,4
545,45	458,14
545,808	446
546,167	438,72
546,525	521,25
546,883	409,59
547,241	484,84
547,599	504,26
547,957	450,86
548,315	492,12
548,673	402,31
549,031	436,29
549,389	363,48
549,747	419,3
550,105	424,16
550,462	385,32
550,82	339,2
551,178	404,74
551,535	426,58
551,893	341,63
552,25	399,88
552,608	334,35
552,965	419,3
553,322	407,17
553,679	387,75
554,037	339,2
554,394	361,05
554,751	392,6
555,108	324,64
555,465	348,91
555,822	368,33
556,179	387,75
556,536	370,76
556,892	351,34
557,249	344,06
557,606	407,17
557,962	271,24
558,319	421,73
558,676	373,19
559,032	443,57
559,389	339,2
559,745	421,73
560,101	331,92
560,458	380,47
560,814	346,49
561,17	373,19
561,526	380,47
561,882	450,86
562,238	382,89
562,594	322,21
562,95	312,5
563,306	344,06
563,662	351,34
564,018	409,59
564,373	344,06
564,729	373,19
565,085	370,76
565,44	334,35
565,796	353,77
566,151	385,32
566,506	370,76
566,862	397,46
567,217	302,8
567,572	395,03
567,928	322,21
568,283	334,35
568,638	402,31
568,993	319,79
569,348	327,07
569,703	412,02
570,058	404,74
570,413	346,49
570,767	358,62
571,122	327,07
571,477	317,36
571,831	288,23
572,186	375,61
572,541	319,79
572,895	356,19
573,25	424,16
573,604	395,03
573,958	341,63
574,313	368,33
574,667	370,76
575,021	302,8
575,375	370,76
575,729	373,19
576,083	339,2
576,437	373,19
576,791	421,73
577,145	363,48
577,499	385,32
577,853	348,91
578,206	414,45
578,56	331,92
578,914	346,49
579,267	385,32
579,621	378,04
579,974	327,07
580,328	300,37
580,681	317,36
581,034	356,19
581,388	407,17
581,741	380,47
582,094	348,91
582,447	341,63
582,8	336,78
583,153	353,77
583,506	310,08
583,859	266,39
584,212	348,91
584,565	356,19
584,917	361,05
585,27	344,06
585,623	351,34
585,975	344,06
586,328	361,05
586,68	358,62
587,033	365,9
587,385	402,31
587,737	472,7
588,09	310,08
588,442	387,75
588,794	336,78
589,146	317,36
589,498	361,05
589,85	378,04
590,202	382,89
590,554	341,63
590,906	361,05
591,258	373,19
591,61	324,64
591,961	351,34
592,313	397,46
592,665	358,62
593,016	351,34
593,368	312,5
593,719	348,91
594,071	358,62
594,422	324,64
594,773	382,89
595,125	310,08
595,476	407,17
595,827	378,04
596,178	351,34
596,529	375,61
596,88	348,91
597,231	295,51
597,582	290,66
597,933	285,81
598,284	307,65
598,634	373,19
598,985	259,11
599,336	348,91
599,686	356,19
600,037	322,21
600,387	341,63
600,738	307,65
601,088	353,77
601,438	297,94
601,789	363,48
602,139	348,91
602,489	351,34
602,839	385,32
603,189	341,63
603,539	341,63
603,889	344,06
604,239	378,04
604,589	336,78
604,939	271,24
605,289	416,88
605,638	331,92
605,988	382,89
606,338	351,34
606,687	314,93
607,037	348,91
607,386	324,64
607,736	370,76
608,085	305,22
608,434	385,32
608,783	407,17
609,133	293,09
609,482	295,51
609,831	380,47
610,18	380,47
610,529	392,6
610,878	314,93
611,227	395,03
611,576	421,73
611,924	392,6
612,273	419,3
612,622	399,88
612,97	472,7
613,319	409,59
613,667	380,47
614,016	450,86
614,364	387,75
614,713	341,63
615,061	329,5
615,409	348,91
615,757	302,8
616,106	363,48
616,454	382,89
616,802	280,95
617,15	295,51
617,498	314,93
617,846	356,19
618,193	278,52
618,541	310,08
618,889	351,34
619,237	365,9
619,584	297,94
619,932	419,3
620,279	387,75
620,627	353,77
620,974	356,19
621,322	346,49
621,669	363,48
622,016	295,51
622,364	356,19
622,711	312,5
623,058	365,9
623,405	297,94
623,752	312,5
624,099	370,76
624,446	382,89
624,793	365,9
625,14	327,07
625,486	290,66
625,833	363,48
626,18	361,05
626,526	399,88
626,873	317,36
627,219	290,66
627,566	268,81
627,912	368,33
628,259	334,35
628,605	322,21
628,951	290,66
629,297	346,49
629,643	392,6
629,989	278,52
630,335	300,37
630,681	344,06
631,027	336,78
631,373	317,36
631,719	254,25
632,065	353,77
632,411	361,05
632,756	322,21
633,102	351,34
633,447	285,81
633,793	322,21
634,138	334,35
634,484	373,19
634,829	324,64
635,174	302,8
635,52	368,33
635,865	361,05
636,21	263,96
636,555	239,69
636,9	363,48
637,245	280,95
637,59	300,37
637,935	300,37
638,28	268,81
638,625	404,74
638,969	310,08
639,314	310,08
639,659	363,48
640,003	322,21
640,348	297,94
640,692	378,04
641,037	310,08
641,381	346,49
641,725	271,24
642,07	307,65
642,414	271,24
642,758	358,62
643,102	409,59
643,446	358,62
643,79	288,23
644,134	300,37
644,478	300,37
644,822	353,77
645,166	348,91
645,509	322,21
645,853	300,37
646,197	290,66
646,54	356,19
646,884	329,5
647,227	373,19
647,571	324,64
647,914	368,33
648,257	370,76
648,601	295,51
648,944	336,78
649,287	346,49
649,63	416,88
649,973	300,37
650,316	336,78
650,659	263,96
651,002	317,36
651,345	348,91
651,688	373,19
652,03	278,52
652,373	373,19
652,716	346,49
653,058	334,35
653,401	244,54
653,743	336,78
654,086	399,88
654,428	307,65
654,771	312,5
655,113	295,51
655,455	414,45
655,797	310,08
656,139	307,65
656,481	261,53
656,823	302,8
657,165	351,34
657,507	348,91
657,849	327,07
658,191	314,93
658,533	300,37
658,874	319,79
659,216	261,53
659,558	307,65
659,899	341,63
660,241	363,48
660,582	334,35
660,924	368,33
661,265	307,65
661,606	261,53
661,947	322,21
662,289	341,63
662,63	339,2
662,971	346,49
663,312	295,51
663,653	295,51
663,994	319,79
664,335	285,81
664,675	331,92
665,016	336,78
665,357	293,09
665,697	300,37
666,038	317,36
666,379	232,41
666,719	312,5
667,06	300,37
667,4	344,06
667,74	283,38
668,081	373,19
668,421	392,6
668,761	334,35
669,101	341,63
669,441	344,06
669,781	322,21
670,121	327,07
670,461	322,21
670,801	251,82
671,141	370,76
671,481	280,95
671,82	365,9
672,16	358,62
672,499	348,91
672,839	368,33
673,179	276,1
673,518	346,49
673,857	285,81
674,197	363,48
674,536	368,33
674,875	302,8
675,214	365,9
675,554	361,05
675,893	365,9
676,232	358,62
676,571	358,62
676,91	317,36
677,248	290,66
677,587	380,47
677,926	348,91
678,265	295,51
678,603	312,5
678,942	344,06
679,28	378,04
679,619	344,06
679,957	327,07
680,296	300,37
680,634	409,59
680,972	358,62
681,311	351,34
681,649	356,19
681,987	339,2
682,325	339,2
682,663	295,51
683,001	353,77
683,339	361,05
683,677	290,66
684,015	353,77
684,352	259,11
684,69	385,32
685,028	392,6
685,365	368,33
685,703	361,05
686,04	346,49
686,378	283,38
686,715	331,92
687,053	319,79
687,39	373,19
687,727	327,07
688,064	319,79
688,401	348,91
688,738	353,77
689,076	341,63
689,412	288,23
689,749	363,48
690,086	324,64
690,423	351,34
690,76	256,68
691,097	331,92
691,433	317,36
691,77	361,05
692,106	319,79
692,443	356,19
692,779	368,33
693,116	370,76
693,452	324,64
693,788	324,64
694,124	346,49
694,461	348,91
694,797	348,91
695,133	322,21
695,469	356,19
695,805	322,21
696,141	266,39
696,477	344,06
696,812	348,91
697,148	288,23
697,484	368,33
697,82	254,25
698,155	327,07
698,491	339,2
698,826	322,21
699,162	280,95
699,497	344,06
699,832	268,81
700,168	285,81
700,503	363,48
700,838	373,19
701,173	380,47
701,508	390,18
701,843	302,8
702,178	273,67
702,513	293,09
702,848	358,62
703,183	295,51
703,517	251,82
703,852	314,93
704,187	305,22
704,521	276,1
704,856	312,5
705,19	276,1
705,525	356,19
705,859	385,32
706,193	297,94
706,528	339,2
706,862	380,47
707,196	273,67
707,53	302,8
707,864	375,61
708,198	344,06
708,532	261,53
708,866	300,37
709,2	358,62
709,534	317,36
709,868	317,36
710,201	363,48
710,535	319,79
710,868	334,35
711,202	273,67
711,535	288,23
711,869	331,92
712,202	358,62
712,536	346,49
712,869	266,39
713,202	312,5
713,535	344,06
713,868	300,37
714,201	351,34
714,534	263,96
714,867	344,06
715,2	390,18
715,533	300,37
715,866	295,51
716,198	310,08
716,531	341,63
716,864	300,37
717,196	387,75
717,529	370,76
717,861	232,41
718,194	324,64
718,526	358,62
718,858	348,91
719,191	300,37
719,523	256,68
719,855	259,11
720,187	290,66
720,519	227,55
720,851	295,51
721,183	341,63
721,515	278,52
721,847	319,79
722,178	331,92
722,51	239,69
722,842	324,64
723,173	268,81
723,505	431,44
723,837	382,89
724,168	322,21
724,499	317,36
724,831	317,36
725,162	317,36
725,493	312,5
725,824	295,51
726,156	307,65
726,487	390,18
726,818	351,34
727,149	329,5
727,48	356,19
727,81	307,65
728,141	314,93
728,472	276,1
728,803	314,93
729,133	322,21
729,464	317,36
729,795	307,65
730,125	273,67
730,455	263,96
730,786	363,48
731,116	278,52
731,446	273,67
731,777	334,35
732,107	363,48
732,437	361,05
732,767	448,43
733,097	344,06
733,427	278,52
733,757	268,81
734,087	271,24
734,417	300,37
734,746	331,92
735,076	341,63
735,406	254,25
735,735	334,35
736,065	353,77
736,394	242,12
736,724	373,19
737,053	285,81
737,382	327,07
737,712	283,38
738,041	305,22
738,37	341,63
738,699	327,07
739,028	229,98
739,357	334,35
739,686	317,36
740,015	280,95
740,344	278,52
740,673	331,92
741,001	293,09
741,33	361,05
741,659	319,79
741,987	331,92
742,316	334,35
742,644	324,64
742,972	348,91
743,301	329,5
743,629	373,19
743,957	404,74
744,286	317,36
744,614	329,5
744,942	348,91
745,27	259,11
745,598	302,8
745,926	283,38
746,254	314,93
746,581	329,5
746,909	336,78
747,237	407,17
747,565	314,93
747,892	322,21
748,22	353,77
748,547	361,05
748,875	314,93
749,202	346,49
749,529	290,66
749,857	312,5
750,184	324,64
750,511	302,8
750,838	317,36
751,165	378,04
751,492	319,79
751,819	263,96
752,146	271,24
752,473	307,65
752,8	276,1
753,126	324,64
753,453	373,19
753,78	305,22
754,106	331,92
754,433	370,76
754,759	409,59
755,086	351,34
755,412	293,09
755,738	242,12
756,065	310,08
756,391	324,64
756,717	324,64
757,043	290,66
757,369	295,51
757,695	285,81
758,021	254,25
758,347	302,8
758,673	353,77
758,999	341,63
759,324	268,81
759,65	271,24
759,976	329,5
760,301	370,76
760,627	324,64
760,952	317,36
761,278	290,66
761,603	348,91
761,928	407,17
762,253	229,98
762,579	239,69
762,904	285,81
763,229	314,93
763,554	271,24
763,879	302,8
764,204	346,49
764,529	239,69
764,853	268,81
765,178	344,06
765,503	310,08
765,828	297,94
766,152	414,45
766,477	273,67
766,801	341,63
767,126	276,1
767,45	331,92
767,774	399,88
768,099	310,08
768,423	324,64
768,747	361,05
769,071	319,79
769,395	348,91
769,719	348,91
770,043	312,5
770,367	305,22
770,691	329,5
771,014	310,08
771,338	334,35
771,662	368,33
771,986	312,5
772,309	305,22
772,633	310,08
772,956	307,65
773,279	295,51
773,603	314,93
773,926	341,63
774,249	314,93
774,573	297,94
774,896	307,65
775,219	322,21
775,542	319,79
775,865	327,07
776,188	307,65
776,511	361,05
776,833	334,35
777,156	392,6
777,479	341,63
777,801	307,65
778,124	344,06
778,447	327,07
778,769	307,65
779,091	353,77
779,414	346,49
779,736	278,52
780,058	273,67
780,381	365,9
780,703	322,21
781,025	370,76
781,347	268,81
781,669	266,39
781,991	331,92
782,313	290,66
782,635	261,53
782,956	229,98
783,278	361,05
783,6	314,93
783,921	334,35
784,243	363,48
784,565	297,94
784,886	353,77
785,207	385,32
785,529	351,34
785,85	365,9
786,171	327,07
786,492	327,07
786,814	395,03
787,135	319,79
787,456	336,78
787,777	399,88
788,098	336,78
788,418	249,4
788,739	271,24
789,06	327,07
789,381	290,66
789,701	361,05
790,022	322,21
790,342	324,64
790,663	351,34
790,983	305,22
791,304	319,79
791,624	363,48
791,944	278,52
792,265	266,39
792,585	312,5
792,905	276,1
793,225	346,49
793,545	312,5
793,865	327,07
794,185	319,79
794,504	297,94
794,824	331,92
795,144	251,82
795,464	327,07
795,783	324,64
796,103	317,36
796,422	251,82
796,742	314,93
797,061	341,63
797,38	312,5
797,7	297,94
798,019	358,62
798,338	361,05
798,657	368,33
798,976	324,64
799,295	331,92
799,614	251,82
799,933	246,97
800,252	276,1
800,571	297,94
800,89	344,06
